#ZVView-data-copy:  11-Dec-2017 09:41:19
#=======================================
#
#name:   JEFF-3.2: SM-153(N,G)SM-154
#X.axis: Incident Energy
#Y.axis: Cross Section
#wdata:  2
#ldata:  2538
#data...
#            X            Y
#          MeV        barns
         1e-11      21217.8
   1.10304e-11      20202.5
   1.21669e-11      19235.8
   1.34206e-11      18315.3
   1.48034e-11      17438.9
   1.63287e-11      16604.4
   1.80111e-11      15809.9
   1.98669e-11      15053.4
   2.19139e-11        14333
   2.41719e-11      13647.2
   2.66625e-11      12994.2
   2.94097e-11      12372.4
     3.244e-11      11780.3
   3.57825e-11      11216.6
   3.94694e-11      10679.9
   4.35362e-11      10168.8
   4.80221e-11      9682.24
   5.29701e-11      9218.93
    5.8428e-11      8777.79
   6.44483e-11      8357.75
   7.10888e-11      7957.81
   7.84136e-11      7577.01
   8.64931e-11      7214.44
   9.54051e-11      6869.21
   1.05235e-10       6540.5
   1.16078e-10      6227.51
   1.28039e-10      5929.51
   1.41231e-10      5645.76
   1.55784e-10      5375.59
   1.71835e-10      5118.35
    1.8954e-10      4873.41
    2.0907e-10       4640.2
   2.30612e-10      4418.14
   2.54374e-10      4206.71
   2.80584e-10      4005.39
   3.09494e-10      3813.71
   3.41383e-10       3631.2
   3.76558e-10      3457.41
   4.15358e-10      3291.95
   4.58155e-10       3134.4
   5.05362e-10      2984.39
   5.57433e-10      2841.55
   6.14869e-10      2705.55
   6.78223e-10      2576.05
   7.48105e-10      2452.75
   8.25188e-10      2335.35
   9.10213e-10      2223.56
      1.004e-9      2117.12
    1.10745e-9      2015.78
    1.22155e-9      1919.28
    1.34742e-9      1827.39
    1.48625e-9       1739.9
    1.63939e-9       1656.6
    1.80831e-9      1577.27
    1.99463e-9      1501.74
    2.20016e-9      1429.83
    2.42685e-9      1361.35
    2.67691e-9      1296.14
    2.95273e-9      1234.05
    3.25697e-9      1174.94
    3.59256e-9      1118.64
    3.96272e-9      1065.04
    4.37103e-9      1014.01
    4.82141e-9      965.417
    5.31819e-9      919.158
    5.86616e-9       875.12
    6.47059e-9      833.199
     7.1373e-9      793.287
    7.87271e-9      755.277
    8.68389e-9      719.065
    9.57865e-9      684.556
    1.05656e-8      651.672
    1.16543e-8      620.353
    1.28551e-8      590.534
    1.41796e-8      562.161
    1.56406e-8       535.16
    1.72522e-8      509.444
    1.90298e-8      484.933
    2.09906e-8      461.579
    2.31534e-8      439.355
    2.52419e-8      420.683
       2.53e-8      420.197
    2.79068e-8      399.965
    3.07823e-8      380.672
     3.3954e-8       362.29
    3.74525e-8      344.792
    4.13115e-8       328.15
    4.55681e-8       312.34
    5.02633e-8        297.3
    5.54423e-8      282.957
    6.11549e-8      269.303
    6.74561e-8      256.324
    7.44066e-8      243.992
    8.20732e-8      232.284
    9.05297e-8      221.205
    9.98577e-8        210.7
    1.10147e-7        200.7
    1.21496e-7      191.235
    1.34014e-7      182.296
    1.47823e-7      173.868
    1.63054e-7      165.948
    1.79855e-7      158.578
    1.98386e-7      151.634
    2.18827e-7      145.174
    2.41375e-7      139.214
    2.66245e-7      133.764
    2.93678e-7      128.842
    3.23938e-7       124.47
    3.57316e-7      120.683
    3.94132e-7      117.595
    4.31719e-7      115.292
    4.72866e-7      113.674
     5.1796e-7      112.822
    5.36879e-7      112.731
     5.8447e-7      113.204
    6.31301e-7      114.508
    6.77108e-7      116.597
    7.26238e-7      119.731
    7.68098e-7      123.167
    8.12369e-7      127.656
    8.53175e-7      132.621
    8.96074e-7      138.794
    9.34537e-7      145.263
    9.74652e-7      153.083
    1.00937e-6      160.861
    1.04537e-6      170.067
    1.07508e-6      178.662
    1.10563e-6      188.585
    1.13704e-6      200.104
    1.16116e-6      209.984
    1.18585e-6      221.162
      1.211e-6      233.808
    1.23675e-6      248.258
    1.26298e-6      264.789
    1.28984e-6      283.911
    1.30804e-6       298.32
    1.32649e-6      314.293
     1.3452e-6      332.089
    1.36418e-6      352.016
    1.38343e-6      374.428
    1.40295e-6      399.758
    1.41776e-6      420.967
    1.43271e-6      444.339
    1.44786e-6      470.312
    1.46317e-6      499.173
    1.47861e-6      531.384
     1.4942e-6      567.497
    1.51001e-6      608.378
    1.52597e-6      654.696
    1.53666e-6      688.982
     1.5475e-6      726.787
    1.55834e-6      768.021
    1.56933e-6      813.777
    1.58033e-6      864.022
    1.59147e-6      920.186
    1.60262e-6      982.345
    1.61393e-6      1052.42
    1.62241e-6      1110.28
    1.63096e-6      1173.91
    1.63956e-6      1243.79
    1.64816e-6       1320.4
    1.65688e-6      1405.88
     1.6656e-6      1500.31
    1.67436e-6       1605.5
     1.6832e-6      1723.75
    1.69205e-6      1856.05
    1.69798e-6       1953.9
    1.70396e-6      2060.74
    1.70994e-6      2176.88
    1.71592e-6      2303.44
    1.72194e-6      2442.75
      1.728e-6      2596.61
    1.73406e-6      2765.94
    1.74013e-6      2952.89
    1.74623e-6      3161.54
    1.75238e-6      3395.45
    1.75699e-6      3588.78
     1.7616e-6      3799.52
    1.76621e-6      4029.79
    1.77003e-6       4236.8
    1.77458e-6      4505.97
    1.77914e-6      4802.09
    1.78369e-6      5128.81
    1.78777e-6       5450.9
    1.79137e-6      5761.55
    1.79498e-6      6099.62
    1.79858e-6       6468.3
    1.80218e-6      6871.17
    1.80578e-6      7312.33
    1.80939e-6      7796.35
    1.81299e-6      8328.38
    1.81659e-6      8914.19
     1.8202e-6      9560.16
     1.8238e-6      10273.3
     1.8274e-6      11061.2
    1.83101e-6      11932.1
    1.83461e-6      12894.5
    1.83821e-6      13957.1
    1.84181e-6      15128.6
    1.84542e-6      16417.2
    1.84902e-6      17830.2
    1.85262e-6      19373.4
    1.85623e-6      21050.2
    1.85983e-6      22861.2
    1.86343e-6      24803.3
    1.86704e-6      26868.6
    1.87244e-6      30168.1
    1.87965e-6      34828.8
    1.88865e-6        40711
    1.89406e-6      44017.8
    1.89766e-6      46029.9
    1.90126e-6      47831.1
    1.90487e-6      49375.5
    1.90847e-6      50621.7
    1.91207e-6      51535.2
    1.91568e-6      52090.1
    1.91865e-6      52266.5
    1.91964e-6      52267.9
    1.92313e-6        52044
    1.92576e-6      51643.6
    1.92937e-6      50784.7
    1.93297e-6      49590.1
    1.93621e-6      48255.4
    1.93946e-6      46704.9
    1.94342e-6      44564.5
    1.94882e-6      41319.7
    1.95783e-6      35479.4
    1.96504e-6      30800.2
    1.97044e-6      27461.6
    1.97405e-6      25360.7
    1.97765e-6      23377.3
    1.98125e-6      21520.8
    1.98485e-6      19795.8
    1.98846e-6      18203.1
    1.99206e-6      16740.5
    1.99566e-6      15403.1
    1.99927e-6      14184.7
    2.00287e-6      13077.6
    2.00647e-6      12073.6
    2.01008e-6      11164.3
    2.01368e-6      10341.2
    2.01728e-6      9596.17
    2.02088e-6      8921.59
    2.02449e-6      8310.27
    2.02809e-6      7755.64
    2.03169e-6      7251.73
     2.0353e-6      6793.15
     2.0389e-6      6375.08
     2.0425e-6      5993.23
    2.04611e-6      5643.76
    2.04971e-6      5323.31
    2.05331e-6      5028.88
    2.05818e-6      4668.02
    2.06196e-6      4413.19
      2.067e-6      4104.27
    2.07205e-6      3826.37
    2.07709e-6      3575.53
    2.08259e-6      3329.16
    2.08808e-6      3107.21
    2.09357e-6      2906.59
    2.09907e-6      2724.66
    2.10456e-6      2559.18
    2.11011e-6      2406.87
    2.11568e-6      2267.04
    2.12125e-6      2138.96
    2.12683e-6      2021.35
     2.1324e-6       1913.1
    2.13988e-6      1780.78
    2.14741e-6       1660.8
    2.15495e-6      1552.43
    2.16248e-6      1454.23
    2.17007e-6      1364.36
    2.17771e-6      1281.94
    2.18535e-6      1206.68
    2.19299e-6       1137.8
    2.20069e-6      1074.16
    2.20843e-6      1015.27
    2.21618e-6      961.032
    2.22393e-6      910.982
    2.23173e-6      864.385
    2.24352e-6      800.423
    2.25531e-6      743.228
     2.2672e-6      691.426
    2.27916e-6      644.593
    2.29111e-6      602.314
    2.30323e-6      563.511
    2.31535e-6      528.306
    2.32753e-6      496.123
    2.33982e-6      466.493
    2.35211e-6        439.4
    2.36452e-6      414.337
    2.37699e-6      391.223
    2.38945e-6      369.969
    2.40631e-6      343.858
    2.42316e-6      320.402
    2.44026e-6      298.962
    2.45735e-6      279.578
    2.47468e-6       261.76
    2.49202e-6      245.574
     2.5096e-6      230.634
    2.52718e-6      217.009
      2.545e-6      204.383
    2.56283e-6      192.824
    2.58091e-6      182.074
    2.59899e-6      172.199
    2.61732e-6      162.985
    2.63565e-6      154.495
    2.65425e-6       146.55
    2.67284e-6      139.209
    2.70112e-6       129.07
    2.72967e-6       119.94
    2.75848e-6      111.698
    2.78757e-6      104.239
    2.81707e-6      97.4462
    2.84684e-6      91.2778
    2.87689e-6      85.6681
    2.90722e-6      80.5609
    2.93799e-6       75.888
    2.96904e-6      71.6327
    3.00038e-6      67.7533
    3.03202e-6      64.2149
     3.0641e-6      60.9799
    3.09648e-6      58.0457
    3.12917e-6      55.3957
    3.16216e-6      53.0175
    3.19562e-6      50.8946
     3.2294e-6      49.0373
    3.26349e-6      47.4514
     3.2979e-6       46.152
    3.33279e-6      45.1609
    3.36802e-6      44.5278
    3.39733e-6      44.3278
     3.4002e-6      44.3264
    3.42707e-6      44.4915
    3.45107e-6      44.9496
    3.46933e-6      45.5339
    3.48759e-6      46.3626
    3.50593e-6      47.4909
    3.52445e-6       48.997
    3.53679e-6      50.2496
    3.54913e-6      51.7406
    3.56165e-6      53.5405
    3.57417e-6      55.6874
    3.58356e-6      57.5687
    3.59295e-6       59.725
    3.60238e-6       62.216
     3.6119e-6       65.121
    3.62142e-6      68.4947
    3.63094e-6      72.4341
    3.63729e-6      75.4348
    3.64364e-6      78.7873
    3.64999e-6      82.5465
     3.6561e-6      86.6171
    3.66222e-6      91.1996
    3.66834e-6       96.382
    3.67446e-6      102.272
    3.67905e-6      107.232
    3.68364e-6      112.731
    3.68822e-6      118.847
    3.69281e-6      125.671
     3.6974e-6      133.309
    3.70127e-6      140.475
    3.70478e-6      147.625
    3.70829e-6      155.464
     3.7118e-6      164.071
    3.71532e-6      173.532
    3.71922e-6      185.162
    3.72234e-6      195.404
    3.72546e-6      206.562
    3.72858e-6       218.72
     3.7317e-6      231.961
    3.73482e-6      246.374
    3.73794e-6      262.048
    3.74106e-6      279.073
    3.74419e-6      297.534
    3.74731e-6      317.517
    3.75043e-6      339.097
    3.75355e-6      362.342
    3.75667e-6      387.306
    3.75979e-6       414.03
    3.76291e-6      442.533
    3.76759e-6      488.609
    3.77227e-6       538.55
    3.77696e-6      592.074
    3.78289e-6      664.274
    3.79131e-6      772.655
    3.80068e-6      894.601
    3.80692e-6      972.015
     3.8116e-6      1025.66
    3.81628e-6      1073.93
    3.82127e-6      1117.95
    3.82502e-6      1145.03
    3.82939e-6      1169.39
    3.83407e-6      1186.15
    3.83875e-6      1192.74
    3.83934e-6      1192.83
     3.8434e-6      1188.99
     3.8478e-6      1176.12
    3.85248e-6       1152.9
    3.85685e-6         1123
    3.86122e-6      1085.99
     3.8659e-6      1039.53
    3.87059e-6      987.345
    3.87683e-6      911.299
    3.89399e-6      689.135
    3.90024e-6      611.808
    3.90492e-6       557.04
     3.9096e-6      505.634
    3.91428e-6      457.934
     3.9174e-6       428.29
    3.92052e-6      400.396
    3.92364e-6      374.247
    3.92676e-6      349.818
    3.92988e-6      327.064
    3.93301e-6       305.93
    3.93613e-6      286.346
    3.93925e-6      268.236
    3.94237e-6      251.519
    3.94549e-6      236.109
    3.94861e-6      221.921
    3.95173e-6      208.867
    3.95485e-6      196.863
    3.95797e-6      185.827
    3.96109e-6      175.682
    3.96461e-6      165.239
    3.96812e-6       155.73
    3.97163e-6      147.063
    3.97514e-6      139.153
    3.97865e-6      131.926
     3.9824e-6      124.889
    3.98626e-6      118.283
    3.99012e-6      112.265
    3.99527e-6      105.043
    4.00042e-6      98.6174
    4.00557e-6      92.8762
    4.01072e-6      87.7249
    4.01587e-6       83.084
    4.02102e-6      78.8868
    4.02634e-6      74.9578
    4.03165e-6      71.3894
    4.03875e-6      67.1163
    4.04584e-6      63.3187
    4.05293e-6      59.9257
    4.06002e-6      56.8797
    4.06711e-6      54.1331
     4.0742e-6      51.6462
    4.08134e-6      49.3708
    4.09213e-6      46.3076
    4.10292e-6      43.6249
     4.1137e-6      41.2592
    4.12449e-6        39.16
    4.13528e-6      37.2868
    4.14622e-6      35.5841
    4.15716e-6      34.0516
    4.17174e-6      32.2337
    4.18633e-6      30.6333
    4.20101e-6      29.2057
     4.2158e-6      27.9258
     4.2306e-6      26.7803
    4.25278e-6      25.2725
    4.27528e-6      23.9554
    4.29778e-6      22.8112
    4.32039e-6      21.8048
     4.3432e-6      20.9102
    4.37363e-6      19.8731
    4.40448e-6       18.969
    4.43533e-6      18.1849
    4.46662e-6      17.4914
    4.49791e-6      16.8845
    4.52963e-6      16.3443
    4.57745e-6      15.6516
    4.62572e-6      15.0771
    4.67466e-6      14.6037
    4.72407e-6      14.2242
    4.77394e-6      13.9331
    4.82427e-6      13.7301
    4.87532e-6      13.6178
    4.91004e-6      13.5973
    4.95062e-6      13.6351
     4.9853e-6      13.7254
    5.02046e-6      13.8781
    5.05563e-6       14.101
    5.09129e-6      14.4103
    5.12696e-6      14.8191
    5.15408e-6      15.2089
     5.1812e-6      15.6796
    5.20846e-6      16.2495
    5.23596e-6      16.9444
     5.2543e-6      17.4874
    5.27264e-6      18.1055
    5.29124e-6      18.8211
    5.30983e-6      19.6409
    5.32843e-6      20.5835
    5.34703e-6      21.6719
    5.36117e-6      22.6151
    5.37532e-6      23.6752
    5.38946e-6      24.8712
    5.40361e-6      26.2263
    5.41775e-6       27.769
    5.43203e-6      29.5524
    5.44159e-6      30.8961
    5.45115e-6      32.3787
    5.46072e-6      34.0201
    5.47028e-6       35.844
    5.47984e-6      37.8787
     5.4894e-6      40.1587
    5.49897e-6      42.7258
    5.50659e-6      45.0111
    5.51421e-6      47.5429
    5.52183e-6      50.3595
    5.52945e-6      53.5067
    5.53707e-6      57.0409
    5.54278e-6      59.9866
     5.5485e-6      63.2238
    5.55421e-6       66.794
    5.55993e-6      70.7466
     5.5654e-6      74.9427
    5.57087e-6      79.6042
    5.57634e-6      84.8038
    5.58181e-6      90.6276
    5.58591e-6      95.4658
    5.59002e-6      100.762
    5.59412e-6      106.572
    5.59822e-6      112.959
    5.60233e-6      119.994
    5.60682e-6      128.537
    5.61151e-6      138.507
    5.61463e-6      145.823
    5.61776e-6      153.731
    5.62089e-6      162.279
    5.62401e-6      171.522
    5.62714e-6      181.515
    5.63058e-6      193.443
    5.63433e-6      207.665
    5.63808e-6      223.252
    5.64183e-6      240.314
    5.64527e-6      257.339
     5.6484e-6      274.036
    5.65152e-6      291.953
    5.65465e-6      311.143
    5.65778e-6      331.653
     5.6609e-6      353.523
    5.66559e-6      388.941
    5.67028e-6      427.542
    5.67497e-6      469.317
    5.67966e-6      514.177
    5.68435e-6      561.943
     5.6906e-6      629.648
    5.69841e-6      719.315
    5.71561e-6      922.513
    5.72186e-6      992.378
    5.72811e-6       1056.6
     5.7328e-6      1099.71
    5.73749e-6      1137.48
    5.74218e-6      1169.09
    5.74687e-6      1193.86
    5.75156e-6       1211.2
    5.75625e-6      1220.74
    5.75969e-6      1222.63
    5.76306e-6      1220.26
    5.76703e-6      1212.16
    5.77125e-6       1197.4
    5.77688e-6      1168.38
    5.78188e-6      1134.34
    5.78657e-6      1096.16
    5.79126e-6      1052.76
    5.79751e-6      988.351
    5.80377e-6      918.503
    5.82409e-6      679.961
    5.83034e-6      609.849
    5.83659e-6      543.685
    5.84128e-6      497.175
    5.84597e-6      453.604
    5.85066e-6      413.115
    5.85535e-6      375.765
    5.86004e-6      341.538
    5.86316e-6       320.42
    5.86629e-6      300.623
    5.86941e-6      282.105
    5.87254e-6      264.818
    5.87567e-6      248.708
    5.87989e-6      228.726
    5.88317e-6      214.504
    5.88645e-6      201.358
    5.88973e-6       189.22
    5.89302e-6       178.02
     5.8963e-6       167.69
    5.90036e-6       156.01
    5.90443e-6      145.448
    5.90849e-6      135.894
    5.91256e-6      127.245
    5.91662e-6      119.408
    5.92068e-6      112.297
    5.92475e-6      105.836
    5.92881e-6      99.9548
     5.9335e-6       93.808
    5.93819e-6      88.2658
    5.94288e-6      83.2545
    5.94757e-6      78.7098
    5.95226e-6      74.5761
    5.95695e-6      70.8051
     5.9632e-6        66.27
    5.96945e-6      62.2223
     5.9757e-6      58.5927
    5.98274e-6       54.938
    5.98665e-6      53.0795
    5.99446e-6      49.6838
    6.00228e-6      46.6618
    6.01009e-6      43.9589
    6.01791e-6      41.5303
    6.02572e-6       39.339
    6.03354e-6      37.3544
    6.04135e-6      35.5507
    6.05201e-6      33.3443
    6.06266e-6      31.3882
    6.07332e-6      29.6453
    6.08397e-6      28.0853
    6.09462e-6      26.6832
    6.10528e-6      25.4182
    6.11593e-6      24.2729
    6.12659e-6      23.2327
    6.14279e-6      21.8246
      6.159e-6      20.5953
    6.17521e-6      19.5162
    6.19141e-6      18.5642
    6.20762e-6      17.7208
    6.22398e-6      16.9638
    6.23493e-6      16.5033
    6.25685e-6      15.6795
    6.27876e-6      14.9676
    6.30068e-6      14.3498
     6.3229e-6       13.805
    6.34512e-6      13.3307
    6.36734e-6      12.9168
    6.40083e-6        12.39
    6.43464e-6      11.9572
    6.46844e-6      11.6081
    6.50257e-6      11.3284
    6.53685e-6      11.1115
    6.57113e-6      10.9516
    6.60589e-6      10.8424
    6.64066e-6      10.7824
    6.66658e-6      10.7684
    6.71361e-6      10.8083
    6.76063e-6      10.9335
     6.7964e-6      11.0883
    6.83217e-6      11.2977
    6.86811e-6      11.5683
    6.90438e-6      11.9099
    6.94065e-6      12.3302
    6.97726e-6      12.8474
    7.00179e-6      13.2544
    7.02631e-6      13.7175
    7.05083e-6      14.2451
     7.0757e-6      14.8566
    7.10057e-6      15.5583
    7.12544e-6      16.3665
    7.14409e-6      17.0544
    7.16292e-6      17.8315
    7.18183e-6      18.7087
    7.20075e-6      19.6985
    7.21966e-6      20.8203
    7.23858e-6      22.0984
    7.25118e-6      23.0519
    7.26397e-6      24.1142
    7.27676e-6      25.2859
    7.28955e-6      26.5823
    7.30234e-6       28.022
    7.31512e-6      29.6271
    7.32791e-6      31.4245
     7.3407e-6      33.4468
    7.35029e-6      35.1351
    7.35816e-6      36.6471
    7.36752e-6      38.6104
    7.37688e-6        40.78
    7.38623e-6      43.1871
    7.39559e-6      45.8696
    7.40494e-6      48.8735
    7.41196e-6      51.3709
    7.41898e-6      54.1095
    7.42599e-6      57.1235
    7.43187e-6      59.8898
    7.43895e-6      63.5557
    7.44603e-6      67.6434
     7.4531e-6      72.2247
    7.45841e-6      76.0366
    7.46372e-6      80.2191
    7.46903e-6      84.8234
    7.47434e-6      89.9095
    7.47965e-6      95.5472
    7.48496e-6      101.817
    7.49007e-6      108.541
    7.49518e-6      116.035
    7.50029e-6      124.411
    7.50413e-6      131.346
    7.50796e-6      138.906
     7.5118e-6      147.156
    7.51563e-6      156.165
    7.51946e-6      166.008
     7.5233e-6      176.767
    7.52739e-6      189.348
    7.53199e-6          205
    7.53659e-6      222.397
    7.54119e-6      241.709
    7.54579e-6       263.11
    7.55039e-6      286.773
    7.55385e-6      306.165
    7.55731e-6      326.999
    7.56077e-6       349.34
    7.56423e-6      373.245
    7.56895e-6      408.448
    7.57367e-6      446.741
    7.57839e-6      488.172
    7.58311e-6      532.737
    7.58783e-6      580.371
    7.59254e-6      630.939
    7.59884e-6      702.548
     7.6067e-6      797.706
    7.62086e-6      978.166
    7.63029e-6      1097.99
    7.63659e-6       1174.1
    7.64288e-6      1244.89
    7.64917e-6      1308.42
    7.65531e-6      1361.58
    7.66128e-6      1403.55
    7.66584e-6       1428.3
    7.67056e-6      1446.77
    7.67528e-6      1457.65
    7.67975e-6      1460.78
    7.68308e-6      1458.53
    7.68881e-6      1445.62
      7.694e-6       1424.3
    7.70013e-6         1388
    7.70643e-6      1339.41
    7.71272e-6      1280.83
    7.71901e-6      1214.02
     7.7253e-6      1140.88
    7.73474e-6      1023.61
    7.75204e-6      803.725
    7.75991e-6      708.756
     7.7662e-6      637.176
    7.77092e-6      586.561
    7.77563e-6      538.822
    7.78035e-6      494.101
    7.78507e-6      452.468
    7.78979e-6      413.933
    7.79451e-6      378.455
    7.79923e-6      345.948
    7.80316e-6      321.044
     7.8067e-6      300.255
    7.81024e-6      280.936
    7.81378e-6      263.014
    7.81732e-6      246.414
    7.82082e-6      231.223
    7.82424e-6      217.479
    7.82766e-6      204.758
    7.83108e-6      192.992
    7.83336e-6      185.646
    7.83792e-6      172.061
    7.84248e-6      159.833
    7.84704e-6      148.825
    7.85161e-6       138.91
    7.85617e-6      129.971
    7.86089e-6      121.638
    7.86561e-6      114.131
    7.87032e-6      107.355
    7.87504e-6      101.225
    7.87976e-6      95.6671
    7.88448e-6      90.6152
     7.8892e-6      86.0116
    7.89392e-6      81.8057
    7.90021e-6      76.7407
     7.9065e-6      72.2144
     7.9124e-6      68.3933
     7.9183e-6      64.9275
    7.92223e-6      62.7923
     7.9301e-6      58.8921
    7.93796e-6      55.4223
    7.94583e-6      52.3199
    7.95369e-6       49.533
    7.96155e-6      47.0192
    7.96942e-6      44.7431
    7.97886e-6      42.2842
    7.98829e-6      40.0828
    7.99773e-6      38.1039
    8.00717e-6      36.3186
    8.01975e-6       34.198
    8.03234e-6      32.3316
    8.04492e-6      30.6814
     8.0575e-6      29.2166
    8.07009e-6      27.9116
    8.08432e-6      26.6022
    8.09855e-6      25.4455
    8.11278e-6      24.4208
    8.12701e-6      23.5111
    8.14836e-6      22.3311
    8.16971e-6      21.3388
    8.19116e-6         20.5
    8.21281e-6      19.7895
    8.23445e-6      19.1963
     8.2561e-6      18.7044
    8.28497e-6      18.1843
    8.31242e-6      17.8137
    8.33846e-6      17.5591
    8.36449e-6      17.3886
    8.39053e-6      17.2944
    8.41096e-6      17.2703
    8.44801e-6      17.3315
    8.47765e-6      17.4734
    8.50729e-6       17.695
    8.53713e-6       17.998
    8.56719e-6      18.3849
    8.59725e-6      18.8567
    8.62731e-6      19.4175
    8.65758e-6       20.078
    8.68806e-6      20.8477
    8.71854e-6      21.7325
    8.74902e-6      22.7456
    8.77972e-6      23.9124
    8.81063e-6      25.2574
    8.83382e-6      26.3932
      8.857e-6      27.6522
    8.88019e-6      29.0494
    8.90359e-6      30.6185
     8.9271e-6      32.3774
    8.95061e-6      34.3462
    8.97412e-6      36.5571
    8.99763e-6      39.0489
    9.02125e-6      41.8833
    9.03715e-6      44.0062
    9.05304e-6      46.3272
    9.06894e-6      48.8713
    9.08483e-6      51.6676
    9.10073e-6      54.7504
    9.11662e-6      58.1604
    9.13252e-6      61.9455
    9.14603e-6      65.5009
    9.16272e-6      70.3881
    9.17385e-6      73.9933
    9.18498e-6      77.9146
    9.19611e-6       82.191
    9.20724e-6      86.8676
    9.21837e-6      91.9972
    9.22949e-6      97.6419
    9.24236e-6      104.906
    9.25094e-6      110.254
    9.25951e-6       116.06
    9.26809e-6      122.381
    9.27667e-6      129.283
    9.28524e-6      136.843
    9.29382e-6      145.151
    9.30197e-6      153.836
    9.30969e-6      162.878
     9.3174e-6      172.825
    9.32512e-6      183.811
    9.33284e-6      195.996
    9.34056e-6      209.576
    9.34635e-6      220.816
    9.35214e-6      233.089
    9.35793e-6      246.533
      9.365e-6      264.788
    9.37015e-6      279.508
     9.3753e-6      295.617
    9.38044e-6       313.29
    9.38559e-6      332.732
    9.39073e-6       354.17
    9.39588e-6      377.866
    9.40102e-6      404.111
    9.40531e-6      428.166
     9.4096e-6       454.43
    9.41389e-6      483.131
    9.41818e-6      514.517
    9.42247e-6      548.855
    9.42676e-6      586.432
    9.43104e-6      627.549
    9.43533e-6      672.527
    9.44022e-6      728.935
    9.44511e-6      791.302
       9.45e-6      860.147
    9.45489e-6      935.986
    9.45977e-6      1019.33
    9.46483e-6         1114
    9.46998e-6      1219.54
    9.47513e-6      1334.85
    9.48027e-6      1460.26
    9.48542e-6      1595.96
    9.49056e-6      1741.98
    9.49571e-6      1898.19
    9.50086e-6      2064.21
    9.50772e-6      2299.77
    9.51629e-6      2613.91
    9.52659e-6       3011.5
    9.54374e-6      3684.96
    9.55403e-6       4064.7
    9.56089e-6      4294.75
    9.56775e-6      4499.01
    9.57427e-6      4663.86
    9.58045e-6       4789.7
    9.58696e-6      4887.03
    9.59211e-6      4936.33
    9.59853e-6      4962.34
    9.59979e-6      4962.76
    9.60374e-6      4954.04
    9.60858e-6      4922.87
    9.61372e-6      4865.48
    9.61853e-6      4790.28
    9.62333e-6      4695.36
    9.63019e-6      4528.47
    9.63705e-6      4329.33
    9.64391e-6      4103.66
    9.65077e-6      3857.62
    9.66106e-6      3464.14
    9.67993e-6      2726.89
    9.68851e-6      2407.81
    9.69537e-6      2166.78
    9.70223e-6      1941.12
    9.70738e-6      1782.96
    9.71252e-6      1634.79
    9.71767e-6      1496.81
    9.72282e-6      1369.01
    9.72796e-6      1251.26
    9.73311e-6      1143.26
    9.73697e-6      1068.43
    9.74083e-6      998.666
    9.74469e-6      933.754
    9.74854e-6      873.462
     9.7524e-6      817.546
    9.75609e-6      767.976
    9.76089e-6      708.712
     9.7657e-6      654.992
     9.7705e-6       606.35
     9.7753e-6      562.334
    9.78011e-6      522.516
    9.78491e-6      486.494
    9.78971e-6      453.892
    9.79361e-6      429.681
    9.79812e-6      404.043
    9.80262e-6      380.634
    9.80712e-6      359.234
    9.81163e-6       339.64
    9.81613e-6      321.672
    9.82213e-6      299.963
    9.82813e-6      280.513
    9.83414e-6      263.027
    9.84014e-6      247.252
    9.84593e-6      233.457
    9.85172e-6      220.884
    9.85558e-6      213.108
     9.8633e-6      198.846
    9.87102e-6      186.091
    9.87874e-6      174.628
    9.88646e-6      164.282
    9.89417e-6      154.905
    9.90189e-6      146.373
    9.90961e-6      138.585
    9.91733e-6      131.452
    9.92762e-6      122.834
    9.93791e-6      115.103
    9.94821e-6      108.137
     9.9585e-6      101.836
    9.96879e-6      96.1158
    9.97908e-6      90.9061
    9.99023e-6      85.7688
    1.00022e-5      80.7534
    1.00142e-5      76.2083
    1.00263e-5       72.076
    1.00383e-5      68.3079
    1.00503e-5      64.8625
    1.00623e-5      61.7043
    1.00803e-5      57.4392
    1.00974e-5      53.8344
    1.01146e-5      50.6129
    1.01317e-5      47.7235
    1.01489e-5      45.1234
     1.0166e-5      42.7769
    1.01832e-5      40.6536
    1.02004e-5       38.728
    1.02175e-5      36.9779
    1.02355e-5      35.3081
    1.02535e-5      33.7926
    1.02806e-5      31.7738
    1.03076e-5      30.0207
    1.03346e-5      28.4968
    1.03617e-5      27.1723
    1.03891e-5      26.0082
    1.04165e-5       25.004
    1.04439e-5      24.1428
    1.04713e-5      23.4108
    1.04987e-5      22.7966
    1.05264e-5      22.2871
    1.05542e-5      21.8804
     1.0582e-5      21.5745
    1.06098e-5      21.3667
    1.06376e-5      21.2559
    1.06561e-5      21.2359
    1.06881e-5      21.3048
    1.07163e-5      21.4776
    1.07445e-5       21.761
    1.07727e-5       22.163
    1.08009e-5      22.6944
    1.08293e-5       23.377
    1.08579e-5      24.2304
    1.08865e-5      25.2774
    1.09056e-5      26.0986
    1.09247e-5      27.0318
    1.09437e-5      28.0912
    1.09628e-5      29.2933
    1.09805e-5      30.5564
    1.09982e-5      31.9797
    1.10159e-5      33.5867
    1.10337e-5      35.4055
    1.10514e-5      37.4707
    1.10647e-5      39.2062
     1.1078e-5      41.1252
    1.10913e-5      43.2528
    1.11045e-5      45.6191
    1.11159e-5      47.8579
    1.11273e-5      50.3238
    1.11386e-5      53.0483
      1.115e-5      56.0688
    1.11613e-5      59.4305
    1.11727e-5      63.1878
    1.11841e-5      67.4076
    1.11926e-5       70.925
    1.12035e-5      75.9664
    1.12117e-5      80.1367
    1.12198e-5      84.7388
    1.12279e-5      89.8388
     1.1236e-5      95.5169
    1.12441e-5      101.871
    1.12502e-5      107.151
    1.12563e-5      112.937
    1.12636e-5      120.649
    1.12701e-5      128.319
    1.12766e-5       136.88
    1.12831e-5      146.473
    1.12879e-5      154.446
    1.12928e-5      163.174
    1.12977e-5      172.748
    1.13025e-5      183.268
    1.13074e-5      194.847
    1.13123e-5      207.611
    1.13175e-5      222.934
    1.13228e-5      240.001
    1.13268e-5      254.072
    1.13307e-5      269.337
    1.13347e-5      285.898
    1.13386e-5      303.861
    1.13426e-5      323.338
    1.13466e-5      344.443
    1.13505e-5      367.296
    1.13545e-5      392.016
    1.13595e-5      426.059
    1.13644e-5      463.515
    1.13694e-5      504.624
    1.13744e-5      549.611
    1.13794e-5      598.685
    1.13832e-5      638.614
    1.13874e-5      686.235
    1.13916e-5       737.06
    1.13959e-5      791.132
    1.14012e-5      864.462
    1.14061e-5      935.648
    1.14126e-5      1037.07
    1.14191e-5      1145.49
    1.14272e-5      1289.73
    1.14369e-5      1472.88
    1.14596e-5      1914.62
    1.14694e-5      2093.93
    1.14759e-5      2204.48
    1.14823e-5      2305.14
    1.14888e-5      2393.71
    1.14953e-5      2468.17
    1.15018e-5      2526.78
    1.15072e-5      2562.19
    1.15122e-5      2584.23
    1.15175e-5      2595.34
    1.15196e-5      2596.22
    1.15252e-5      2588.98
    1.15317e-5      2563.14
    1.15375e-5      2524.38
    1.15427e-5      2478.24
    1.15492e-5      2406.23
    1.15557e-5       2319.9
    1.15622e-5      2221.24
    1.15719e-5       2054.9
    1.15817e-5      1873.45
    1.16044e-5      1433.26
    1.16141e-5      1252.86
    1.16222e-5      1111.46
    1.16287e-5      1005.54
    1.16352e-5      906.717
    1.16401e-5      837.485
    1.16456e-5      764.195
    1.16502e-5      707.975
    1.16547e-5      655.453
    1.16592e-5      606.554
    1.16632e-5      566.658
    1.16683e-5      519.184
    1.16734e-5      475.812
    1.16786e-5       436.31
    1.16837e-5       400.43
    1.16888e-5      367.917
     1.1693e-5      343.208
    1.16973e-5      320.509
    1.17016e-5      299.675
    1.17058e-5      280.566
    1.17101e-5      263.045
    1.17143e-5      246.985
    1.17186e-5      232.263
    1.17229e-5      218.765
    1.17271e-5      206.384
    1.17314e-5      195.019
    1.17358e-5      184.105
    1.17407e-5      173.242
    1.17456e-5      163.357
    1.17504e-5      154.348
    1.17553e-5       146.12
    1.17602e-5      138.592
    1.17667e-5      129.516
    1.17732e-5      121.398
    1.17797e-5      114.111
    1.17861e-5      107.541
    1.17922e-5      101.951
    1.17983e-5      96.8442
    1.18064e-5      90.6887
    1.18145e-5      85.1787
    1.18227e-5      80.2219
    1.18308e-5       75.742
    1.18389e-5      71.6762
     1.1847e-5      67.9719
    1.18567e-5      63.9424
    1.18681e-5      59.7355
    1.18795e-5      55.9837
    1.18908e-5      52.6209
    1.19022e-5      49.5931
    1.19135e-5      46.8558
    1.19249e-5      44.3719
    1.19363e-5      42.1104
    1.19501e-5      39.6254
    1.19582e-5      38.2826
    1.19744e-5      35.8287
    1.19906e-5      33.6455
    1.20069e-5      31.6943
    1.20231e-5      29.9432
    1.20393e-5      28.3657
    1.20555e-5      26.9397
    1.20718e-5      25.6466
    1.20921e-5      24.1933
    1.21123e-5      22.8973
    1.21326e-5      21.7374
    1.21529e-5       20.696
    1.21732e-5      19.7582
    1.21935e-5      18.9116
    1.22138e-5      18.1456
    1.22448e-5      17.1083
    1.22772e-5      16.1778
    1.23096e-5      15.3765
    1.23419e-5      14.6852
    1.23743e-5      14.0888
    1.24067e-5      13.5754
    1.24395e-5      13.1299
    1.24723e-5      12.7523
    1.24942e-5       12.535
    1.25379e-5      12.1769
    1.25817e-5      11.9136
     1.2623e-5      11.7477
    1.26643e-5      11.6604
    1.26918e-5      11.6468
    1.27254e-5      11.6808
    1.27589e-5      11.7741
    1.27925e-5      11.9328
    1.28261e-5      12.1656
    1.28596e-5      12.4849
    1.28916e-5      12.8847
    1.29123e-5      13.2045
    1.29331e-5      13.5804
    1.29538e-5      14.0218
    1.29745e-5       14.541
    1.29953e-5      15.1533
    1.30108e-5      15.6855
    1.30264e-5      16.2919
    1.30446e-5       17.116
    1.30604e-5      17.9458
    1.30722e-5      18.6545
     1.3084e-5      19.4511
    1.30958e-5       20.351
    1.31076e-5      21.3738
    1.31194e-5      22.5445
    1.31313e-5      23.8955
    1.31391e-5      24.9166
     1.3147e-5      26.0521
    1.31549e-5      27.3211
    1.31628e-5      28.7467
    1.31706e-5      30.3571
    1.31785e-5      32.1864
    1.31844e-5      33.7267
    1.31903e-5      35.4339
    1.31962e-5      37.3318
    1.32021e-5      39.4474
    1.32081e-5      41.8117
     1.3214e-5      44.4597
    1.32199e-5       47.431
    1.32258e-5      50.7695
    1.32305e-5      53.7377
    1.32352e-5      56.9995
    1.32399e-5      60.5843
    1.32447e-5      64.5234
    1.32494e-5      68.8496
    1.32541e-5      73.5974
    1.32589e-5      78.8027
    1.32636e-5       84.502
    1.32683e-5      90.7325
     1.3273e-5      97.5314
     1.3278e-5      105.322
    1.32834e-5      114.667
    1.32889e-5      124.909
    1.32943e-5      136.092
    1.32997e-5      148.252
    1.33052e-5      161.414
    1.33113e-5      177.517
    1.33174e-5      194.916
    1.33215e-5      207.222
    1.33278e-5      227.217
    1.33341e-5      248.419
    1.33436e-5      282.191
    1.33562e-5      329.911
    1.33751e-5      402.997
    1.33846e-5      437.834
     1.3394e-5       469.89
    1.34003e-5      489.098
    1.34066e-5      506.164
    1.34129e-5      520.765
    1.34192e-5      532.618
    1.34258e-5       541.85
    1.34324e-5      547.588
    1.34396e-5      549.718
     1.3445e-5      548.464
    1.34507e-5      544.539
    1.34576e-5      536.214
    1.34639e-5      525.444
    1.34702e-5      511.848
    1.34765e-5      495.694
    1.34828e-5      477.293
    1.34923e-5      446.231
    1.35017e-5      412.114
    1.35301e-5      303.552
    1.35396e-5       268.82
    1.35459e-5      246.779
    1.35522e-5      225.824
    1.35585e-5      206.074
    1.35646e-5      188.058
    1.35707e-5      171.312
    1.35766e-5      156.423
    1.35821e-5       143.77
    1.35875e-5      132.098
     1.3593e-5      121.378
    1.35984e-5      111.572
    1.36038e-5      102.633
    1.36085e-5      95.5275
    1.36133e-5      89.0053
     1.3618e-5      83.0308
    1.36227e-5      77.5674
    1.36274e-5       72.579
    1.36322e-5        68.03
    1.36369e-5      63.8856
    1.36416e-5      60.1127
    1.36464e-5      56.6796
    1.36511e-5      53.5564
    1.36562e-5      50.4901
    1.36621e-5      47.3198
     1.3668e-5      44.4994
    1.36739e-5      41.9869
    1.36798e-5       39.745
    1.36857e-5      37.7406
    1.36916e-5      35.9442
    1.36975e-5      34.3304
    1.37054e-5       32.424
    1.37133e-5      30.7571
    1.37212e-5      29.2921
     1.3729e-5       27.998
    1.37369e-5      26.8492
    1.37448e-5      25.8247
    1.37566e-5      24.4836
    1.37684e-5       23.337
    1.37802e-5      22.3493
    1.37921e-5      21.4932
    1.38039e-5      20.7473
    1.38196e-5      19.8958
    1.38354e-5      19.1799
    1.38494e-5       18.639
    1.38677e-5      18.0429
     1.3886e-5      17.5538
    1.39043e-5      17.1542
    1.39287e-5      16.7377
    1.39531e-5      16.4321
    1.39775e-5      16.2192
    1.40019e-5      16.0853
    1.40386e-5       16.011
    1.40757e-5      16.0698
    1.41128e-5      16.2475
      1.415e-5      16.5343
    1.41871e-5      16.9251
    1.42243e-5      17.4183
    1.42617e-5      18.0224
    1.42994e-5      18.7422
    1.43371e-5      19.5842
    1.43747e-5      20.5606
    1.44124e-5      21.6868
    1.44502e-5      22.9896
    1.44757e-5      23.9757
    1.45011e-5      25.0612
    1.45266e-5      26.2581
    1.45521e-5      27.5801
    1.45775e-5      29.0438
     1.4603e-5      30.6684
    1.46284e-5      32.4765
    1.46507e-5      34.2276
    1.46697e-5       35.869
    1.46887e-5      37.6594
    1.47078e-5      39.6171
    1.47268e-5      41.7634
    1.47458e-5      44.1233
    1.47648e-5      46.7263
    1.47839e-5      49.6073
     1.4804e-5      53.0061
    1.48199e-5      55.9889
    1.48359e-5      59.2685
    1.48518e-5      62.8869
    1.48677e-5      66.8934
    1.48832e-5      71.2172
    1.48978e-5      75.7402
    1.49125e-5      80.7638
    1.49271e-5       86.368
    1.49417e-5      92.6506
    1.49514e-5      97.2741
    1.49651e-5      104.474
    1.49784e-5      112.331
    1.49873e-5      118.134
    1.49961e-5      124.457
     1.5005e-5       131.37
    1.50138e-5      138.956
    1.50227e-5      147.314
    1.50315e-5      156.561
    1.50404e-5      166.842
    1.50492e-5      178.331
    1.50559e-5      187.867
    1.50625e-5      198.308
    1.50692e-5      209.777
    1.50758e-5      222.419
    1.50824e-5        236.4
    1.50891e-5      251.915
    1.50957e-5      269.188
    1.51024e-5      288.476
     1.5109e-5      310.076
    1.51156e-5      334.324
    1.51201e-5      352.148
    1.51245e-5      371.444
    1.51289e-5      392.344
    1.51333e-5      414.995
    1.51378e-5       439.55
    1.51422e-5      466.175
    1.51466e-5      495.042
    1.51511e-5      526.334
    1.51555e-5      560.244
    1.51599e-5      596.969
    1.51643e-5      636.713
    1.51688e-5      679.687
    1.51728e-5      722.258
    1.51769e-5      767.907
     1.5181e-5        816.8
    1.51851e-5      869.096
    1.51891e-5      924.952
    1.51952e-5      1015.73
    1.52013e-5       1115.3
    1.52067e-5      1209.33
     1.5212e-5       1310.5
    1.52173e-5      1418.93
    1.52226e-5      1534.66
    1.52297e-5      1700.27
    1.52368e-5      1878.42
    1.52438e-5      2068.39
    1.52509e-5      2269.04
    1.52615e-5      2586.56
    1.52934e-5      3582.03
     1.5304e-5       3892.7
    1.53111e-5      4083.43
    1.53182e-5      4256.75
    1.53253e-5      4409.21
    1.53324e-5      4537.64
    1.53384e-5      4625.86
    1.53458e-5       4706.1
    1.53529e-5      4751.33
    1.53597e-5      4765.18
     1.5365e-5      4755.88
     1.5372e-5      4715.92
    1.53798e-5      4636.68
    1.53869e-5      4534.31
     1.5394e-5      4405.36
    1.54011e-5       4252.6
    1.54082e-5       4079.2
    1.54188e-5      3788.03
    1.54294e-5      3470.61
    1.54577e-5      2586.78
    1.54684e-5      2270.65
    1.54755e-5      2070.85
    1.54825e-5      1881.65
    1.54896e-5      1704.15
    1.54955e-5      1567.04
    1.55024e-5      1416.21
     1.5507e-5      1322.44
    1.55134e-5      1200.72
    1.55188e-5      1105.54
    1.55243e-5      1017.54
    1.55297e-5      936.455
    1.55352e-5      861.973
    1.55406e-5      793.747
    1.55449e-5      743.865
    1.55492e-5      697.493
    1.55536e-5      654.435
    1.55579e-5        614.5
    1.55622e-5      577.495
    1.55665e-5      543.233
    1.55708e-5      511.529
    1.55751e-5      482.206
    1.55795e-5      455.094
    1.55838e-5      430.029
    1.55884e-5      405.148
    1.55937e-5      379.167
     1.5599e-5      355.562
    1.56044e-5        334.1
    1.56097e-5      314.565
     1.5615e-5      296.764
    1.56203e-5      280.519
    1.56256e-5       265.67
    1.56291e-5      256.474
    1.56362e-5        239.6
    1.56433e-5       224.52
      1.565e-5      211.798
    1.56566e-5      200.272
    1.56632e-5      189.795
    1.56699e-5      180.241
    1.56787e-5      168.753
    1.56876e-5      158.497
    1.56964e-5      149.295
    1.57053e-5      140.999
    1.57141e-5      133.489
    1.57234e-5      126.337
    1.57327e-5      119.842
    1.57389e-5      115.835
    1.57513e-5      108.507
    1.57637e-5      101.977
    1.57761e-5      96.1311
    1.57885e-5      90.8747
    1.58009e-5      86.1312
    1.58133e-5      81.8363
    1.58272e-5      77.4736
    1.58412e-5      73.5459
    1.58551e-5      69.9992
    1.58691e-5      66.7882
    1.58877e-5       62.963
    1.59063e-5      59.5906
    1.59249e-5      56.6087
    1.59434e-5      53.9662
     1.5962e-5      51.6207
    1.59842e-5      49.1669
    1.60063e-5      47.0347
    1.60284e-5      45.1839
    1.60506e-5      43.5814
    1.60727e-5      42.1997
    1.60948e-5      41.0165
     1.6117e-5       40.013
    1.61391e-5      39.1738
    1.61712e-5      38.2234
    1.62033e-5      37.5619
    1.62354e-5      37.1678
    1.62675e-5      37.0269
    1.62991e-5      37.1288
    1.63308e-5      37.4684
    1.63624e-5        38.05
     1.6394e-5      38.8832
    1.64257e-5      39.9836
    1.64488e-5      40.9685
    1.64739e-5      42.2272
     1.6499e-5      43.6994
    1.65241e-5      45.4072
    1.65492e-5      47.3778
    1.65743e-5      49.6444
    1.65995e-5      52.2477
    1.66246e-5      55.2376
    1.66462e-5      58.1644
    1.66642e-5      60.9039
    1.66823e-5      63.9419
    1.67004e-5      67.3179
    1.67185e-5      71.0785
    1.67366e-5      75.2793
    1.67546e-5      79.9874
    1.67727e-5      85.2838
    1.67883e-5      90.3912
    1.68014e-5      95.1231
    1.68144e-5      100.321
    1.68275e-5      106.048
    1.68405e-5       112.38
    1.68536e-5      119.407
    1.68666e-5      127.238
    1.68797e-5      136.007
    1.68913e-5      144.676
    1.69013e-5      153.023
    1.69113e-5      162.238
    1.69214e-5      172.455
    1.69314e-5      183.835
    1.69415e-5      196.576
     1.6949e-5      207.168
    1.69566e-5      218.783
    1.69641e-5      231.563
    1.69706e-5      243.709
    1.69786e-5      260.216
    1.69867e-5        278.7
    1.69927e-5      294.051
    1.69987e-5      310.847
    1.70048e-5      329.262
    1.70108e-5      349.492
    1.70168e-5      371.754
    1.70228e-5       396.29
    1.70289e-5      423.367
    1.70339e-5      448.083
    1.70399e-5        480.6
     1.7046e-5      516.561
     1.7052e-5      556.335
     1.7058e-5      600.317
     1.7064e-5      648.924
    1.70701e-5      702.593
    1.70761e-5      761.775
    1.70811e-5      815.636
    1.70871e-5      886.117
    1.70932e-5      963.404
    1.70992e-5      1047.93
    1.71052e-5       1140.1
    1.71112e-5      1240.28
    1.71161e-5      1326.38
    1.71209e-5      1417.93
    1.71281e-5      1565.61
    1.71345e-5      1707.38
    1.71406e-5      1849.21
    1.71486e-5       2051.3
    1.71566e-5      2267.36
    1.71667e-5      2554.77
    1.71787e-5      2919.49
    1.72069e-5      3796.79
    1.72189e-5      4151.08
     1.7227e-5      4368.58
     1.7235e-5      4565.69
     1.7243e-5      4737.98
    1.72511e-5      4881.44
    1.72591e-5      4992.64
    1.72671e-5      5068.86
    1.72752e-5      5108.19
    1.72796e-5      5113.71
    1.72864e-5      5099.63
    1.72945e-5       5048.3
    1.73017e-5         4971
    1.73081e-5      4878.87
    1.73162e-5         4735
    1.73242e-5       4562.5
    1.73322e-5      4365.41
    1.73403e-5      4148.14
    1.73523e-5      3794.54
    1.73845e-5      2796.83
    1.73965e-5       2439.7
    1.74046e-5      2214.78
    1.74126e-5      2002.66
    1.74206e-5      1804.65
    1.74267e-5      1665.91
    1.74327e-5      1535.74
    1.74383e-5      1422.01
    1.74439e-5      1315.74
    1.74496e-5      1216.77
    1.74552e-5      1124.91
    1.74615e-5      1029.76
    1.74678e-5      942.878
    1.74742e-5      863.788
    1.74805e-5      791.996
    1.74868e-5      726.982
    1.74925e-5      674.461
    1.74977e-5      629.387
     1.7503e-5      588.044
    1.75083e-5      550.147
    1.75135e-5      515.424
    1.75188e-5      483.614
    1.75241e-5      454.473
    1.75294e-5      427.768
    1.75346e-5      403.285
    1.75399e-5      380.825
    1.75452e-5      360.202
    1.75512e-5      338.667
    1.75572e-5       319.08
    1.75633e-5      301.234
    1.75693e-5      284.944
    1.75753e-5      270.044
    1.75814e-5      256.385
    1.75894e-5      239.881
    1.75974e-5      225.083
    1.76055e-5      211.762
    1.76145e-5      198.298
    1.76195e-5      191.432
    1.76296e-5      178.851
    1.76396e-5      167.611
    1.76497e-5      157.518
    1.76597e-5      148.414
    1.76697e-5      140.164
    1.76798e-5      132.661
    1.76898e-5      125.812
    1.77029e-5      117.761
     1.7716e-5      110.544
     1.7729e-5      104.047
    1.77421e-5      98.1736
    1.77551e-5      92.8451
    1.77682e-5      87.9951
    1.77812e-5      83.5674
    1.77989e-5      78.1544
    1.78129e-5      74.3121
    1.78315e-5      69.6875
    1.78501e-5      65.5594
    1.78686e-5      61.8612
    1.78872e-5      58.5375
    1.79058e-5      55.5419
    1.79244e-5      52.8353
     1.7943e-5      50.3846
    1.79681e-5      47.4304
    1.79932e-5      44.8348
    1.80183e-5      42.5507
    1.80434e-5      40.5393
    1.80685e-5      38.7688
    1.80936e-5      37.2128
    1.81188e-5      35.8496
    1.81439e-5      34.6612
    1.81687e-5      33.6448
    1.81935e-5      32.7729
    1.82183e-5      32.0363
    1.82555e-5      31.1698
    1.82926e-5      30.5752
    1.83298e-5      30.2443
    1.83601e-5      30.1698
    1.83936e-5      30.2972
    1.84271e-5      30.6574
    1.84606e-5      31.2705
     1.8483e-5      31.8335
    1.85053e-5      32.5327
    1.85276e-5      33.3818
    1.85498e-5      34.3868
    1.85716e-5      35.5626
    1.85935e-5      36.9427
    1.86154e-5      38.5568
    1.86373e-5      40.4418
    1.86537e-5      42.0606
    1.86702e-5      43.8811
    1.86866e-5      45.9316
     1.8703e-5      48.2465
    1.87211e-5      51.1536
    1.87354e-5      53.7583
    1.87497e-5      56.6799
     1.8764e-5      59.9699
    1.87783e-5      63.6919
     1.8789e-5      66.8142
    1.87997e-5       70.265
    1.88104e-5      74.0941
    1.88212e-5      78.3621
    1.88283e-5      81.4871
    1.88381e-5      86.2044
     1.8848e-5      91.4828
    1.88578e-5      97.4211
    1.88652e-5       102.38
    1.88725e-5       107.84
    1.88799e-5      113.871
    1.88873e-5      120.558
    1.88946e-5          128
     1.8902e-5      136.308
    1.89088e-5      144.873
    1.89145e-5      152.775
    1.89202e-5      161.436
    1.89259e-5      170.943
    1.89316e-5      181.393
    1.89373e-5      192.893
     1.8943e-5      205.559
    1.89487e-5      219.518
    1.89544e-5      234.908
    1.89601e-5      251.878
    1.89658e-5      270.587
    1.89699e-5      285.342
    1.89744e-5      302.501
    1.89789e-5      320.998
    1.89833e-5      340.924
    1.89878e-5      362.371
    1.89923e-5      385.433
    1.89967e-5      410.202
    1.90012e-5      436.773
    1.90056e-5      464.941
      1.901e-5      494.738
    1.90166e-5      543.173
    1.90231e-5      596.317
    1.90297e-5      654.384
    1.90363e-5      717.541
    1.90411e-5      767.725
    1.90465e-5      826.308
    1.90519e-5      888.378
    1.90599e-5      987.914
     1.9067e-5      1082.62
    1.90742e-5       1182.8
    1.90849e-5      1342.05
    1.90992e-5      1566.94
    1.91242e-5      1969.72
     1.9135e-5      2133.61
    1.91457e-5      2284.57
    1.91564e-5      2417.22
    1.91635e-5      2492.98
    1.91707e-5      2557.03
    1.91796e-5       2618.9
     1.9185e-5      2645.64
    1.91921e-5      2668.57
    1.91996e-5      2676.61
    1.92071e-5      2668.06
    1.92143e-5      2644.66
    1.92218e-5      2604.57
    1.92279e-5      2561.01
     1.9235e-5      2497.89
    1.92422e-5      2423.03
    1.92529e-5      2291.63
    1.92636e-5      2141.76
    1.92743e-5      1978.79
    1.93065e-5      1463.57
    1.93172e-5      1298.33
     1.9328e-5      1142.25
    1.93351e-5      1044.44
    1.93414e-5      963.442
    1.93494e-5      865.936
    1.93548e-5      805.208
    1.93601e-5      747.942
    1.93651e-5       697.61
    1.93701e-5      650.255
    1.93751e-5      605.824
    1.93801e-5      564.244
    1.93851e-5      525.429
    1.93901e-5      489.276
    1.93951e-5      455.676
    1.94001e-5       424.51
    1.94048e-5      397.391
    1.94095e-5      372.197
    1.94142e-5      348.821
    1.94189e-5      327.157
    1.94236e-5      307.099
    1.94283e-5      288.543
     1.9433e-5      271.389
    1.94377e-5       255.54
    1.94424e-5      240.901
    1.94471e-5      227.383
    1.94522e-5      213.762
    1.94582e-5      199.217
    1.94643e-5      186.079
    1.94703e-5      174.205
    1.94763e-5       163.46
    1.94823e-5      153.726
    1.94884e-5      144.891
    1.94944e-5       136.86
    1.95004e-5      129.544
    1.95065e-5      122.866
    1.95145e-5      114.835
    1.95226e-5      107.673
    1.95306e-5      101.257
    1.95386e-5       95.487
    1.95467e-5      90.2745
    1.95547e-5      85.5469
    1.95628e-5      81.2422
    1.95735e-5      76.0711
    1.95842e-5      71.4569
    1.95949e-5      67.3165
    1.96077e-5      62.9232
    1.96187e-5      59.5022
    1.96298e-5      56.3969
    1.96408e-5      53.5673
    1.96519e-5      50.9798
    1.96666e-5      47.8588
    1.96814e-5      45.0634
    1.96961e-5      42.5485
    1.97109e-5       40.277
    1.97283e-5      37.8644
    1.97434e-5      35.9835
    1.97584e-5      34.2706
    1.97785e-5      32.2151
    1.97986e-5      30.3862
    1.98187e-5      28.7526
    1.98389e-5      27.2889
     1.9859e-5      25.9734
    1.98791e-5      24.7885
    1.99014e-5      23.6068
    1.99237e-5      22.5505
    1.99461e-5       21.605
    1.99684e-5      20.7584
    1.99907e-5      20.0003
    2.00243e-5       19.011
    2.00578e-5      18.1782
    2.00882e-5      17.5425
    2.01186e-5      17.0101
     2.0149e-5      16.5731
    2.01794e-5      16.2256
    2.02098e-5      15.9641
    2.02402e-5      15.7866
    2.02707e-5      15.6931
    2.02859e-5      15.6783
    2.03144e-5      15.7095
     2.0341e-5      15.8112
    2.03676e-5      15.9876
    2.03942e-5       16.245
    2.04208e-5      16.5917
    2.04475e-5      17.0386
    2.04741e-5      17.5993
    2.05007e-5      18.2915
     2.0524e-5      19.0245
    2.05441e-5       19.764
    2.05642e-5      20.6208
    2.05842e-5      21.6137
    2.06043e-5      22.7664
    2.06193e-5      23.7535
    2.06344e-5      24.8627
    2.06494e-5      26.1129
    2.06645e-5      27.5272
    2.06745e-5      28.5753
    2.06876e-5      30.0905
    2.07007e-5      31.7973
    2.07138e-5      33.7304
    2.07236e-5      35.3549
    2.07335e-5      37.1541
    2.07433e-5       39.156
    2.07531e-5      41.3947
    2.07629e-5      43.9118
    2.07728e-5      46.7586
    2.07816e-5      49.6405
    2.07883e-5      52.1003
    2.07951e-5      54.8077
    2.08018e-5      57.7965
    2.08086e-5      61.1059
    2.08154e-5      64.7806
    2.08221e-5      68.8718
    2.08289e-5      73.4376
    2.08356e-5       78.544
    2.08424e-5      84.2653
    2.08491e-5      90.6847
    2.08551e-5      96.9755
    2.08606e-5      103.442
    2.08661e-5      110.558
    2.08717e-5      118.387
    2.08772e-5          127
    2.08827e-5      136.468
    2.08882e-5      146.869
    2.08938e-5      158.281
    2.08993e-5      170.788
    2.09048e-5      184.473
    2.09104e-5       199.42
    2.09157e-5      215.086
     2.0921e-5      232.075
    2.09263e-5      250.457
    2.09316e-5      270.299
     2.0937e-5      291.664
    2.09423e-5      314.602
    2.09476e-5      339.161
    2.09529e-5      365.374
    2.09597e-5      400.833
    2.09664e-5      438.967
    2.09731e-5      479.743
    2.09798e-5      523.081
    2.09883e-5      581.519
    2.09968e-5      643.459
    2.10067e-5      718.551
    2.10263e-5      875.816
    2.10427e-5      1006.84
    2.10558e-5      1105.63
    2.10656e-5      1173.16
    2.10755e-5      1232.93
    2.10853e-5      1283.14
    2.10918e-5      1310.53
    2.10984e-5      1332.58
    2.11053e-5      1349.64
    2.11121e-5      1360.19
    2.11196e-5      1364.09
    2.11285e-5      1358.36
    2.11357e-5      1345.56
    2.11429e-5      1325.71
    2.11495e-5      1301.83
    2.11593e-5      1256.39
    2.11691e-5      1200.72
     2.1179e-5      1136.51
    2.11888e-5      1065.64
    2.12019e-5      964.137
    2.12314e-5      728.062
    2.12412e-5       652.74
    2.12514e-5      578.879
    2.12605e-5       516.41
    2.12663e-5      479.645
    2.12731e-5      437.975
      2.128e-5      399.054
    2.12869e-5      362.914
    2.12932e-5      332.219
    2.12989e-5      306.303
    2.13047e-5      282.232
    2.13104e-5      259.948
    2.13161e-5       239.38
    2.13219e-5       220.45
    2.13276e-5      203.072
    2.13333e-5      187.157
    2.13378e-5      175.619
    2.13427e-5      163.944
    2.13477e-5      153.165
    2.13526e-5      143.223
    2.13575e-5      134.063
    2.13624e-5       125.63
    2.13673e-5       117.87
    2.13722e-5      110.734
    2.13771e-5      104.172
    2.13821e-5      98.1399
     2.1387e-5      92.5936
    2.13927e-5      86.6836
    2.13988e-5      80.9572
     2.1405e-5      75.7922
    2.14111e-5      71.1277
    2.14173e-5      66.9087
    2.14234e-5       63.086
    2.14296e-5      59.6156
    2.14357e-5       56.458
    2.14418e-5      53.5785
      2.145e-5      50.1188
    2.14568e-5      47.5502
    2.14648e-5      44.8033
    2.14728e-5      42.3283
    2.14807e-5      40.0887
    2.14887e-5      38.0537
    2.14967e-5      36.1972
    2.15074e-5      33.9618
     2.1518e-5      31.9616
    2.15286e-5      30.1616
    2.15393e-5      28.5334
    2.15507e-5       26.959
     2.1562e-5      25.5308
    2.15696e-5      24.6502
    2.15847e-5      23.0396
    2.15999e-5      21.6033
     2.1615e-5      20.3155
    2.16302e-5      19.1552
    2.16453e-5      18.1051
    2.16605e-5      17.1509
    2.16789e-5      16.1027
    2.16973e-5      15.1611
    2.17158e-5      14.3116
    2.17342e-5      13.5419
    2.17526e-5      12.8419
     2.1771e-5      12.2032
    2.17895e-5      11.6185
    2.18151e-5      10.8846
    2.18366e-5      10.3293
    2.18652e-5      9.66361
    2.18939e-5      9.07108
    2.19225e-5      8.54089
    2.19512e-5      8.06415
    2.19799e-5       7.6335
    2.20085e-5      7.24288
    2.20372e-5      6.88721
    2.20741e-5      6.47448
    2.21109e-5      6.10502
    2.21478e-5      5.77267
    2.21846e-5      5.47236
    2.22215e-5      5.19985
    2.22583e-5      4.95159
    2.22952e-5      4.72461
     2.2332e-5      4.51638
    2.23911e-5      4.21647
    2.24502e-5      3.95211
    2.25092e-5      3.71747
    2.25683e-5      3.50774
    2.26274e-5      3.31908
     2.2687e-5      3.14699
    2.27469e-5      2.99021
    2.28068e-5      2.84747
    2.28867e-5      2.67597
    2.29666e-5      2.52285
    2.30476e-5      2.38346
    2.31286e-5      2.25775
    2.32096e-5      2.14379
    2.32906e-5      2.04001
    2.33728e-5      1.94383
     2.3496e-5      1.81429
    2.36192e-5      1.69994
    2.37442e-5      1.59659
    2.38691e-5      1.50372
    2.39947e-5      1.41965
    2.41214e-5      1.34288
    2.42481e-5      1.27312
     2.4376e-5      1.20882
    2.45474e-5      1.13108
    2.47199e-5      1.06131
    2.48502e-5      1.01415
    2.49371e-5     0.987705
    2.49903e-5     0.975752
        2.5e-5     0.974016
        2.5e-5      153.732
    2.53527e-5      152.573
    2.57104e-5      151.398
    2.60731e-5      150.206
     2.6441e-5      148.998
     2.6814e-5      147.772
    2.71923e-5      146.529
    2.73438e-5      146.032
    2.77295e-5       144.92
    2.81207e-5      143.793
    2.85175e-5       142.65
    2.89198e-5       141.49
    2.93278e-5      140.315
    2.96875e-5      139.278
    3.01063e-5      138.209
    3.05311e-5      137.125
    3.09618e-5      136.025
    3.13986e-5       134.91
    3.18416e-5      133.779
    3.20313e-5      133.295
    3.24832e-5      132.263
    3.29414e-5      131.217
    3.34062e-5      130.157
    3.38775e-5      129.081
    3.43554e-5      127.991
     3.4375e-5      127.946
      3.486e-5      126.949
    3.53518e-5      125.938
    3.58505e-5      124.913
    3.63563e-5      123.873
    3.67187e-5      123.128
    3.72368e-5      122.163
    3.77621e-5      121.184
    3.82949e-5      120.191
    3.88352e-5      119.184
    3.90625e-5      118.761
    3.96136e-5      117.824
    4.01725e-5      116.874
    4.07392e-5      115.911
     4.1314e-5      114.934
    4.14062e-5      114.778
    4.19904e-5      113.868
    4.25828e-5      112.945
    4.31836e-5      112.009
      4.375e-5      111.127
    4.43672e-5      110.241
    4.49932e-5      109.343
    4.56279e-5      108.433
    4.60938e-5      107.764
     4.6744e-5      106.902
    4.74035e-5      106.027
    4.80723e-5       105.14
    4.84375e-5      104.655
    4.91209e-5      103.843
    4.98139e-5      103.019
    5.05167e-5      102.183
    5.12294e-5      101.336
    5.19521e-5      100.477
    5.26851e-5      99.6052
     5.3125e-5      99.0821
    5.38745e-5      98.3046
    5.46346e-5      97.5161
    5.54054e-5      96.7165
     5.6187e-5      95.9056
    5.69797e-5      95.0832
    5.77836e-5      94.2493
    5.78125e-5      94.2193
    5.86281e-5      93.4729
    5.94553e-5       92.716
    6.02941e-5      91.9484
    6.11447e-5      91.1699
    6.20074e-5      90.3805
       6.25e-5      89.9297
    6.33818e-5      89.2112
     6.4276e-5      88.4826
    6.51828e-5      87.7437
    6.61024e-5      86.9944
     6.7035e-5      86.2346
    6.71875e-5      86.1103
    6.81354e-5      85.4171
    6.90967e-5      84.7141
    7.00715e-5      84.0013
    7.10601e-5      83.2783
     7.1875e-5      82.6824
     7.2889e-5      82.0122
    7.39174e-5      81.3325
    7.49602e-5      80.6433
    7.60178e-5      79.9443
    7.65625e-5      79.5843
    7.76427e-5      78.9351
    7.87381e-5      78.2768
    7.98489e-5      77.6092
    8.09754e-5      76.9321
      8.125e-5      76.7671
    8.23963e-5      76.1373
    8.35588e-5      75.4986
    8.47376e-5      74.8509
    8.59331e-5       74.194
    8.59375e-5      74.1916
    8.71499e-5      73.5796
    8.83795e-5       72.959
    8.96263e-5      72.3297
     9.0625e-5      71.8256
    9.19036e-5      71.2302
    9.32001e-5      70.6264
     9.4515e-5       70.014
    9.53125e-5      69.6427
    9.66572e-5      69.0627
    9.80208e-5      68.4745
    9.94037e-5       67.878
        0.0001      67.6208
   0.000101411      67.0649
   0.000102842      66.5011
   0.000104292      65.9294
   0.000105764      65.3497
   0.000107031      64.8503
   0.000108541      64.3133
   0.000110073      63.7688
   0.000111626      63.2166
     0.0001132      62.6566
   0.000114063        62.35
   0.000115672      61.8304
   0.000117304      61.3035
   0.000118959      60.7691
   0.000120637      60.2272
   0.000121094      60.0797
   0.000122802       59.576
   0.000124535      59.0652
   0.000126292      58.5472
   0.000128073      58.0219
   0.000128125      58.0067
   0.000129933      57.5177
   0.000131766      57.0218
   0.000133625      56.5189
   0.000135156      56.1046
   0.000137063      55.6292
   0.000138997      55.1471
   0.000140958      54.6582
   0.000142188      54.3516
   0.000144194      53.8888
   0.000146228      53.4195
   0.000148291      52.9437
   0.000149219      52.7296
   0.000151324      52.2787
   0.000153459      51.8214
   0.000155624      51.3576
    0.00015625      51.2235
   0.000158454       50.798
    0.00016069      50.3665
   0.000162957      49.9289
   0.000165256      49.4852
   0.000167587      49.0352
   0.000169952      48.5788
   0.000170313      48.5092
   0.000172715      48.1021
   0.000175152      47.6893
   0.000177623      47.2707
   0.000180129      46.8461
    0.00018267      46.4156
   0.000184375      46.1268
   0.000186976      45.7362
   0.000189614        45.34
   0.000192289      44.9383
   0.000195002      44.5309
   0.000197753      44.1178
   0.000198437       44.015
   0.000201237      43.6393
   0.000204076      43.2582
   0.000206955      42.8717
   0.000209875      42.4798
     0.0002125      42.1275
   0.000215498      41.7652
   0.000218538      41.3978
   0.000221621      41.0252
   0.000224748      40.6473
   0.000226562       40.428
   0.000229759       40.078
      0.000233      39.7231
   0.000236288      39.3631
   0.000239621       38.998
   0.000240625      38.8881
    0.00024402      38.5494
   0.000247462      38.2058
   0.000250954      37.8574
   0.000254494      37.5041
   0.000254688      37.4848
   0.000258281      37.1565
   0.000261925      36.8235
    0.00026562      36.4857
    0.00026875      36.1997
   0.000272542      35.8809
   0.000276387      35.5576
   0.000280286      35.2298
   0.000282813      35.0174
   0.000286803      34.7075
   0.000290849      34.3933
   0.000294952      34.0746
   0.000296875      33.9253
   0.000301063      33.6237
   0.000305311      33.3179
   0.000309618      33.0078
   0.000310937      32.9128
   0.000315324       32.619
   0.000319773       32.321
   0.000324284      32.0189
      0.000325       31.971
   0.000329585      31.6937
   0.000334235      31.4124
    0.00033895      31.1272
   0.000343732       30.838
   0.000348582      30.5447
   0.000353125        30.27
   0.000358107      30.0049
   0.000363159       29.736
   0.000368283      29.4634
   0.000373479      29.1869
   0.000378748      28.9065
    0.00038125      28.7733
   0.000386629      28.5191
   0.000392083      28.2614
   0.000397615           28
   0.000403225      27.7349
   0.000408913      27.4661
   0.000409375      27.4443
   0.000415151      27.1999
   0.000421008      26.9522
   0.000426947       26.701
   0.000432971      26.4462
     0.0004375      26.2546
   0.000443672      26.0192
   0.000449932      25.7806
   0.000456279      25.5385
   0.000462717      25.2931
   0.000465625      25.1822
   0.000472194      24.9551
   0.000478856      24.7247
   0.000485612      24.4911
   0.000492463      24.2542
    0.00049375      24.2097
   0.000500716        23.99
    0.00050778      23.7673
   0.000514944      23.5414
   0.000521875      23.3229
   0.000529238      23.1102
   0.000536704      22.8944
   0.000544276      22.6757
       0.00055      22.5103
    0.00055776       22.304
   0.000565628      22.0948
   0.000573609      21.8826
   0.000578125      21.7625
   0.000586281      21.5622
   0.000594553       21.359
   0.000602941       21.153
    0.00060625      21.0717
   0.000614803      20.8769
   0.000623477      20.6793
   0.000632273      20.4789
   0.000634375      20.4311
   0.000643325      20.2414
   0.000652401      20.0491
   0.000661605      19.8541
     0.0006625      19.8352
   0.000671847      19.6563
   0.000681325       19.475
   0.000690938      19.2911
   0.000700685      19.1046
   0.000710571      18.9155
    0.00071875       18.759
    0.00072889      18.5883
   0.000739174      18.4153
   0.000749602      18.2398
   0.000760178      18.0618
   0.000770902      17.8813
      0.000775      17.8124
   0.000785934       17.649
   0.000797022      17.4834
   0.000808267      17.3154
    0.00081967      17.1451
   0.000831234      16.9723
    0.00083125      16.9721
   0.000842977      16.8154
    0.00085487      16.6564
   0.000866931      16.4952
   0.000879162      16.3318
     0.0008875      16.2204
   0.000900021      16.0696
   0.000912719      15.9168
   0.000925596      15.7617
   0.000938654      15.6045
    0.00094375      15.5432
   0.000957065      15.3979
   0.000970567      15.2506
    0.00098426      15.1012
   0.000998146      14.9497
         0.001      14.9295
    0.00101411      14.7899
    0.00102842      14.6484
    0.00104292      14.5049
    0.00105764      14.3593
     0.0010625      14.3112
    0.00107749      14.1767
    0.00109269      14.0403
    0.00110811       13.902
    0.00112374      13.7617
      0.001125      13.7504
    0.00114087      13.6205
    0.00115697      13.4888
    0.00117329      13.3552
     0.0011875       13.239
    0.00120425      13.1134
    0.00122124       12.986
    0.00123847      12.8568
       0.00125      12.7704
    0.00126764      12.6487
    0.00128552      12.5254
    0.00130366      12.4003
     0.0013125      12.3392
    0.00133102      12.2213
     0.0013498      12.1016
    0.00136884      11.9803
      0.001375       11.941
     0.0013944      11.8265
    0.00141407      11.7103
    0.00143402      11.5925
     0.0014375      11.5719
    0.00145778      11.4606
    0.00147835      11.3476
     0.0014992      11.2331
        0.0015      11.2287
    0.00152116      11.1239
    0.00154262      11.0175
    0.00156439      10.9097
    0.00158646      10.8003
    0.00160884      10.6894
      0.001625      10.6093
    0.00164793      10.5095
    0.00167118      10.4083
    0.00169475      10.3056
    0.00171866      10.2015
    0.00174291       10.096
       0.00175      10.0651
    0.00177469       9.9698
    0.00179973      9.87316
    0.00182512      9.77515
    0.00185087      9.67576
      0.001875      9.58261
    0.00190145      9.49138
    0.00192828      9.39886
    0.00195548      9.30503
    0.00198307      9.20988
         0.002       9.1515
    0.00202822      9.06396
    0.00205683      8.97517
    0.00208585      8.88514
    0.00211528      8.79384
      0.002125      8.76367
    0.00215498      8.67949
    0.00218538      8.59412
    0.00221621      8.50754
    0.00224748      8.41974
       0.00225      8.41267
    0.00228174      8.33156
    0.00231393      8.24931
    0.00234658       8.1659
      0.002375      8.09329
    0.00240851      8.01502
    0.00244249      7.93564
    0.00247695      7.85514
        0.0025      7.80128
    0.00253527      7.72562
    0.00257104       7.6489
    0.00260731      7.57109
      0.002625      7.53314
    0.00266203      7.45991
    0.00269959      7.38564
    0.00273768      7.31033
       0.00275      7.28596
     0.0027888      7.21498
    0.00282814      7.14299
    0.00286804         7.07
      0.002875      7.05727
    0.00291556      6.98839
    0.00295669      6.91854
    0.00299841      6.84771
         0.003        6.845
    0.00304232      6.78031
    0.00308525      6.71471
    0.00312877      6.64819
    0.00317291      6.58072
    0.00321768      6.51231
       0.00325      6.46291
    0.00329585      6.40153
    0.00334235      6.33929
     0.0033895      6.27617
    0.00343732      6.21216
    0.00348582      6.14725
        0.0035      6.12827
    0.00354938      6.06985
    0.00359945      6.01061
    0.00365024      5.95053
    0.00370173       5.8896
       0.00375       5.8325
    0.00380291      5.77673
    0.00385656      5.72018
    0.00391097      5.66284
    0.00396614      5.60468
         0.004      5.56899
    0.00405643      5.51563
    0.00411366      5.46151
     0.0041717      5.40663
    0.00423055      5.35097
       0.00425      5.33258
    0.00430996       5.2814
    0.00437077       5.2295
    0.00443243      5.17686
    0.00449496      5.12348
        0.0045      5.11918
    0.00456349      5.06999
    0.00462787      5.02011
    0.00469316      4.96952
       0.00475      4.92548
    0.00481701      4.87812
    0.00488497      4.83009
    0.00495389      4.78139
         0.005       4.7488
    0.00507054      4.70313
    0.00514208      4.65681
    0.00521462      4.60984
       0.00525      4.58693
    0.00532407      4.54281
    0.00539918      4.49807
    0.00547535       4.4527
        0.0055      4.43802
     0.0055776      4.39535
    0.00565629      4.35208
    0.00573609      4.30819
       0.00575      4.30054
    0.00583112      4.25922
    0.00591339      4.21731
    0.00599682      4.17481
         0.006      4.17318
        0.0065      3.94456
        0.0065      3.95385
         0.007      3.22801
         0.008      2.51328
          0.01      1.99354
         0.015      1.45113
          0.02      1.18355
          0.03     0.903917
          0.04     0.695602
          0.05     0.564605
     0.0699831     0.416017
     0.0852079     0.346953
           0.1     0.280864
          0.15     0.161579
           0.2     0.120392
           0.3    0.0819597
           0.4    0.0659108
           0.5    0.0454755
           0.6    0.0381107
      0.699969    0.0294333
           0.8    0.0260033
           0.9    0.0232419
             1    0.0209256
           1.1    0.0189404
           1.2    0.0160506
           1.3    0.0146928
       1.40988    0.0134366
       1.51058    0.0124126
       1.62257    0.0113968
           1.7    0.0107319
        1.8127   0.00990865
       1.92681   0.00916238
             2   0.00870538
             3    0.0046731
             4   0.00254864
             5   0.00144732
             6  0.000936412
             7  0.000580591
             8  0.000531058
             9  0.000657834
            10  0.000770829
       10.1411  0.000786295
       10.2842  0.000801978
       10.4292  0.000817883
       10.5764  0.000834013
       10.7256   0.00085037
       10.8769  0.000866957
            11   0.00088045
       11.1552  0.000883804
       11.3126  0.000887205
       11.4722  0.000890654
        11.634  0.000894152
       11.7982  0.000897699
       11.9646  0.000901296
            12  0.000902061
       12.1693  0.000896001
        12.341  0.000889855
       12.5151  0.000883623
       12.6917  0.000877303
       12.8707  0.000870894
            13  0.000866266
       13.1834  0.000845388
       13.3694  0.000824216
        13.558  0.000802744
       13.7493   0.00078097
       13.9433  0.000758889
            14  0.000752432
       14.1975  0.000723681
       14.3978  0.000694524
       14.6009  0.000664956
       14.8069  0.000634971
            15  0.000606868
       15.2116  0.000573847
       15.4262  0.000540361
       15.6439  0.000506401
       15.8646  0.000471963
            16  0.000450832
       16.2257  0.000424266
       16.4546  0.000397325
       16.6868  0.000370005
       16.9222  0.000342299
            17  0.000333144
       17.2398  0.000313381
       17.4831  0.000293339
       17.7297  0.000273014
       17.9799  0.000252402
            18  0.000250742
       18.2539  0.000235085
       18.5115  0.000219208
       18.7726  0.000203106
            19  0.000189089
       19.2681  0.000177567
       19.5399  0.000165883
       19.8156  0.000154034
            20  0.000146107